{
    "Name": "Zahn et al. 1986, No. 8",
    "Type": "Rectangular",
    "fpc": 40.1,
    "fyt": 466.0,
    "fsut": 688.0,
    "fyl": 440.0,
    "fsul": 674.0,
    "Width": 400.0,
    "Depth": 400.0,
    "L_Inflection": 1600.0,
    "L_Measured": 1600.0,
    "TestConfiguration": "Double Ended",
    "AxLoad": 2502.0,
    "P_Delta": "Shear provided",
    "dlb": 16.0,
    "dlb_c": 16.0,
    "nlb": 12.0,
    "cc_per": 13.0,
    "nib_per": 2.0,
    "cc_par": 13.0,
    "nib_par": 2.0,
    "SubType": "RI: Rectangular and interlocking ties",
    "nsl": 4.0,
    "dtb_rcs": 10.0,
    "s_rcs": 92.0,
    "dtb_rws": 10.0,
    "s_rws": 0.0,
    "FailureType": "Flexure",
    "data": {
        "disp": [
            0.0,
            0.10929,
            0.0,
            0.0,
            0.21858,
            0.76502,
            1.3115,
            1.7486,
            2.4044,
            2.8415,
            3.0602,
            3.4973,
            3.7158,
            4.4808,
            4.8087,
            5.4646,
            6.0109,
            6.448,
            6.9947,
            6.8852,
            6.6667,
            6.448,
            6.3388,
            6.3388,
            6.0109,
            5.683,
            5.4646,
            5.1366,
            4.9179,
            4.5903,
            4.1529,
            4.0437,
            3.7158,
            3.3879,
            2.8415,
            2.2951,
            1.9672,
            1.8579,
            1.53,
            1.2022,
            1.0929,
            0.54646,
            0.32786,
            0.10929,
            -0.87432,
            -1.0929,
            -2.1858,
            -3.3879,
            -4.4808,
            -4.9179,
            -5.2459,
            -6.1201,
            -6.776,
            -6.8852,
            -6.8852,
            -6.8852,
            -6.776,
            -6.776,
            -6.6667,
            -6.5573,
            -6.2296,
            -6.0109,
            -5.683,
            -5.683,
            -5.4646,
            -5.0274,
            -4.6995,
            -3.8252,
            -3.1694,
            -2.2951,
            -1.7486,
            -1.4208,
            -0.76502,
            -0.32786,
            -0.10929,
            1.4208,
            1.8579,
            2.4044,
            2.8415,
            3.1694,
            3.6065,
            4.1529,
            4.8087,
            5.4646,
            6.1201,
            6.2296,
            6.6667,
            7.3223,
            8.3061,
            9.399,
            10.601,
            11.257,
            12.678,
            13.661,
            15.519,
            16.612,
            17.924,
            18.47,
            18.251,
            17.814,
            17.486,
            16.831,
            16.393,
            15.738,
            15.191,
            14.754,
            13.333,
            12.787,
            12.022,
            11.257,
            10.492,
            9.6175,
            8.7432,
            7.6502,
            6.2296,
            5.2459,
            4.3716,
            3.7158,
            2.1858,
            1.53,
            0.76502,
            0.32786,
            0.0,
            -1.8579,
            -2.7323,
            -3.6065,
            -4.6995,
            -5.0274,
            -5.1366,
            -5.5738,
            -6.0109,
            -6.2296,
            -6.776,
            -7.1039,
            -7.541,
            -9.0711,
            -10.82,
            -11.585,
            -12.678,
            -13.989,
            -16.066,
            -18.689,
            -21.421,
            -24.918,
            -25.027,
            -24.809,
            -24.481,
            -24.044,
            -23.716,
            -22.951,
            -22.732,
            -22.295,
            -21.421,
            -20.874,
            -20.0,
            -19.454,
            -18.579,
            -17.596,
            -16.612,
            -15.628,
            -14.754,
            -13.771,
            -12.022,
            -10.929,
            -9.5082,
            -8.0874,
            -6.5573,
            -5.4646,
            -3.8252,
            -2.6231,
            -1.2022,
            0.0,
            1.2022,
            4.3716,
            5.1366,
            7.3223,
            8.7432,
            10.164,
            11.913,
            13.88,
            15.738,
            16.94,
            18.033,
            18.361,
            18.142,
            17.924,
            17.596,
            17.268,
            16.721,
            16.503,
            15.847,
            14.208,
            12.896,
            11.585,
            9.399,
            9.5082,
            8.5245,
            7.541,
            6.448,
            5.4646,
            4.2624,
            3.1694,
            2.1858,
            0.21858,
            -0.76502,
            -1.8579,
            -2.9507,
            -3.9345,
            -4.8087,
            -5.7925,
            -7.7594,
            -8.634,
            -10.71,
            -11.585,
            -13.115,
            -14.645,
            -15.628,
            -16.94,
            -18.47,
            -19.672,
            -20.874,
            -21.967,
            -23.497,
            -24.59,
            -25.246,
            -25.791,
            -25.027,
            -24.372,
            -23.825,
            -23.279,
            -22.841,
            -21.967,
            -21.093,
            -18.47,
            -17.486,
            -16.721,
            -15.628,
            -14.098,
            -12.896,
            -11.257,
            -9.7267,
            -8.1968,
            -6.5573,
            -5.4646,
            -2.7323,
            -1.6393,
            -0.32786,
            0.54646,
            1.7486,
            3.1694,
            5.4646,
            6.776,
            8.3061,
            9.9454,
            11.913,
            13.989,
            16.393,
            18.579,
            20.984,
            23.825,
            26.012,
            30.82,
            35.847,
            37.048,
            37.267,
            37.485,
            37.267,
            37.158,
            36.502,
            35.956,
            34.099,
            33.879,
            33.005,
            31.803,
            30.383,
            29.18,
            26.886,
            23.06,
            21.53,
            19.563,
            17.596,
            15.738,
            13.989,
            12.678,
            11.366,
            8.8524,
            6.776,
            5.1366,
            3.4973,
            2.1858,
            0.65573,
            -1.9672,
            -3.8252,
            -8.3061,
            -11.585,
            -14.535,
            -16.503,
            -18.579,
            -20.656,
            -22.841,
            -24.809,
            -26.667,
            -29.18,
            -31.366,
            -33.551,
            -38.252,
            -46.34,
            -50.493,
            -54.646,
            -58.362,
            -60.437,
            -60.218,
            -59.891,
            -59.563,
            -58.798,
            -57.813,
            -56.721,
            -55.519,
            -54.209,
            -52.677,
            -51.148,
            -49.726,
            -48.197,
            -45.903,
            -43.607,
            -41.311,
            -39.563,
            -35.41,
            -33.879,
            -31.257,
            -28.306,
            -25.682,
            -22.514,
            -20.219,
            -17.268,
            -14.098,
            -11.475,
            -6.9947,
            -1.3115,
            1.7486,
            4.8087,
            9.7267,
            16.066,
            22.514,
            29.289,
            34.099,
            33.769,
            33.442,
            32.24,
            30.82,
            28.524,
            26.777,
            24.918,
            20.874,
            17.158,
            11.585,
            7.9781,
            5.1366,
            1.6393,
            -1.53,
            -5.3551,
            -9.0711,
            -12.131,
            -17.814,
            -24.262,
            -30.602,
            -35.301,
            -37.595,
            -39.781,
            -42.078,
            -44.044,
            -47.104,
            -49.726,
            -53.332,
            -56.721,
            -59.891,
            -64.699,
            -64.153,
            -63.934,
            -63.497,
            -62.078,
            -60.764,
            -59.454,
            -57.925,
            -55.41,
            -53.114,
            -51.039,
            -48.961,
            -46.121,
            -38.58,
            -31.694,
            -25.464,
            -17.377,
            -7.1039,
            -4.0437,
            -0.21858,
            3.2786,
            8.4153,
            13.661,
            19.126,
            25.027,
            31.257,
            37.485,
            42.296,
            47.432,
            50.056,
            50.274,
            50.383,
            50.056,
            49.507,
            48.306,
            46.886,
            45.027,
            42.515,
            40.109,
            37.267,
            35.41,
            32.677,
            30.056,
            26.995,
            22.076,
            17.049,
            12.787,
            9.1803,
            5.1366,
            -2.9507,
            -7.541,
            -11.038,
            -14.645,
            -22.295,
            -26.667,
            -31.476,
            -37.376,
            -41.311,
            -45.027,
            -48.524,
            -52.459,
            -55.301,
            -58.143,
            -62.733,
            -67.104,
            -71.148,
            -75.192,
            -78.471,
            -81.859,
            -89.398,
            -93.99,
            -99.235,
            -103.72,
            -108.85,
            -109.07,
            -108.85,
            -108.2,
            -107.21,
            -104.92,
            -102.3,
            -100.44,
            -98.143,
            -95.628,
            -92.895,
            -89.837,
            -85.136,
            -81.638,
            -77.048,
            -72.349,
            -68.087,
            -60.328,
            -55.629,
            -49.289,
            -43.061,
            -36.83,
            -27.541,
            -21.639,
            -11.803,
            -0.43716,
            8.1968,
            12.241,
            18.689,
            24.153,
            31.039,
            39.345,
            43.825,
            48.415,
            48.415,
            47.978,
            47.76,
            47.432,
            44.917,
            43.17,
            40.983,
            38.689,
            36.393,
            33.99,
            31.476,
            29.398,
            27.869,
            30.602,
            28.743,
            26.558
        ],
        "force": [
            0.0,
            11.189,
            21.022,
            34.245,
            47.131,
            55.947,
            66.458,
            73.236,
            92.225,
            100.02,
            107.82,
            116.3,
            124.09,
            139.69,
            147.83,
            157.66,
            165.8,
            174.28,
            186.82,
            172.24,
            165.8,
            158.68,
            151.56,
            143.76,
            136.98,
            128.85,
            121.72,
            109.52,
            104.09,
            87.141,
            79.339,
            70.866,
            61.031,
            51.196,
            40.687,
            29.837,
            19.327,
            9.1544,
            -2.0344,
            -9.4938,
            -15.597,
            -25.09,
            -34.245,
            -46.789,
            -70.523,
            -77.306,
            -104.09,
            -125.79,
            -148.17,
            -154.27,
            -162.41,
            -178.01,
            -183.09,
            -171.56,
            -163.77,
            -154.95,
            -146.47,
            -136.98,
            -127.49,
            -119.01,
            -108.84,
            -100.02,
            -91.206,
            -85.442,
            -79.001,
            -70.866,
            -62.726,
            -49.502,
            -29.498,
            -9.8327,
            2.3734,
            12.545,
            23.056,
            31.533,
            39.67,
            68.152,
            78.663,
            90.53,
            103.41,
            116.3,
            128.5,
            140.71,
            152.58,
            164.44,
            176.31,
            179.7,
            187.84,
            199.71,
            212.93,
            225.82,
            235.31,
            243.44,
            251.92,
            258.36,
            263.79,
            265.15,
            264.81,
            256.67,
            243.79,
            225.47,
            209.88,
            195.98,
            182.07,
            168.85,
            159.7,
            150.54,
            127.49,
            117.65,
            106.12,
            93.92,
            83.747,
            72.56,
            61.369,
            48.826,
            29.837,
            21.7,
            10.511,
            -0.33906,
            -18.309,
            -28.82,
            -42.722,
            -52.553,
            -62.726,
            -84.427,
            -93.581,
            -104.77,
            -124.78,
            -133.59,
            -142.06,
            -150.54,
            -161.05,
            -167.49,
            -177.67,
            -186.48,
            -195.3,
            -213.61,
            -231.58,
            -238.02,
            -244.12,
            -249.21,
            -251.58,
            -252.94,
            -253.96,
            -253.96,
            -242.09,
            -230.9,
            -215.31,
            -202.42,
            -190.55,
            -178.01,
            -171.56,
            -160.38,
            -147.15,
            -136.98,
            -124.09,
            -112.57,
            -102.4,
            -89.85,
            -78.663,
            -64.42,
            -53.572,
            -40.348,
            -18.648,
            -7.4593,
            7.1204,
            20.683,
            35.601,
            46.112,
            61.707,
            73.574,
            88.493,
            102.4,
            116.64,
            148.85,
            163.43,
            181.74,
            194.62,
            205.81,
            220.05,
            232.59,
            242.77,
            249.21,
            253.28,
            238.36,
            229.21,
            220.39,
            211.57,
            204.11,
            192.25,
            181.74,
            173.94,
            156.31,
            138.68,
            121.38,
            97.989,
            98.327,
            84.766,
            73.574,
            62.726,
            52.215,
            41.026,
            30.177,
            20.004,
            -0.67814,
            -12.206,
            -25.769,
            -35.94,
            -46.789,
            -58.318,
            -69.847,
            -88.155,
            -100.7,
            -118.33,
            -128.16,
            -140.37,
            -152.92,
            -162.75,
            -173.6,
            -185.81,
            -194.96,
            -203.1,
            -211.24,
            -220.05,
            -227.51,
            -229.88,
            -221.07,
            -206.49,
            -198.01,
            -186.82,
            -173.94,
            -162.07,
            -148.85,
            -134.61,
            -97.651,
            -84.766,
            -73.236,
            -60.012,
            -44.417,
            -29.498,
            -14.241,
            3.0516,
            18.648,
            34.923,
            48.826,
            73.574,
            88.155,
            101.72,
            111.89,
            123.76,
            138.34,
            164.44,
            178.35,
            192.25,
            206.15,
            221.75,
            234.97,
            248.19,
            255.31,
            260.06,
            265.15,
            266.5,
            268.88,
            268.88,
            268.53,
            268.2,
            263.45,
            256.33,
            247.85,
            231.58,
            221.75,
            197.33,
            188.86,
            180.04,
            164.44,
            150.2,
            139.36,
            119.01,
            90.53,
            79.339,
            66.796,
            54.59,
            41.366,
            29.837,
            20.004,
            10.85,
            -6.7814,
            -20.683,
            -33.906,
            -46.112,
            -55.604,
            -66.115,
            -86.798,
            -100.7,
            -129.52,
            -148.51,
            -168.51,
            -177.33,
            -187.5,
            -198.01,
            -208.52,
            -218.01,
            -227.17,
            -238.7,
            -246.84,
            -253.28,
            -257.35,
            -259.04,
            -258.7,
            -256.67,
            -254.63,
            -253.62,
            -240.05,
            -229.54,
            -217.0,
            -205.81,
            -191.23,
            -176.65,
            -164.44,
            -150.2,
            -133.93,
            -122.4,
            -108.16,
            -95.614,
            -79.001,
            -64.42,
            -48.145,
            -37.296,
            -10.172,
            0.33906,
            14.58,
            30.177,
            44.078,
            61.031,
            72.898,
            87.817,
            103.41,
            116.98,
            137.32,
            160.03,
            172.92,
            186.48,
            204.11,
            223.44,
            240.73,
            253.96,
            260.4,
            248.53,
            235.98,
            209.2,
            187.84,
            165.8,
            149.19,
            133.93,
            100.36,
            74.593,
            36.619,
            15.936,
            0.67814,
            -17.292,
            -34.245,
            -53.234,
            -68.828,
            -84.427,
            -111.89,
            -140.03,
            -165.12,
            -181.4,
            -189.53,
            -196.32,
            -202.76,
            -208.52,
            -217.0,
            -222.42,
            -229.21,
            -234.29,
            -238.02,
            -240.39,
            -221.41,
            -206.83,
            -191.57,
            -171.56,
            -153.93,
            -138.68,
            -125.45,
            -108.5,
            -90.868,
            -75.612,
            -61.707,
            -43.739,
            -1.6953,
            32.55,
            60.012,
            95.952,
            138.0,
            149.19,
            165.46,
            180.04,
            198.35,
            216.32,
            231.92,
            244.8,
            256.67,
            263.45,
            266.5,
            268.88,
            268.2,
            260.74,
            245.14,
            229.88,
            213.95,
            196.65,
            178.35,
            162.75,
            139.69,
            121.72,
            105.45,
            94.6,
            79.677,
            65.439,
            50.52,
            27.803,
            5.0858,
            -11.189,
            -24.412,
            -38.653,
            -65.777,
            -79.677,
            -90.868,
            -102.74,
            -129.86,
            -145.8,
            -160.72,
            -176.31,
            -185.81,
            -193.94,
            -201.06,
            -208.18,
            -213.61,
            -217.68,
            -224.46,
            -228.87,
            -230.9,
            -232.59,
            -231.92,
            -230.9,
            -226.49,
            -223.1,
            -218.36,
            -212.59,
            -204.45,
            -183.77,
            -164.1,
            -149.52,
            -133.93,
            -112.57,
            -94.258,
            -78.325,
            -64.758,
            -49.84,
            -35.94,
            -20.344,
            0.0,
            14.241,
            31.872,
            48.488,
            60.693,
            82.052,
            94.258,
            108.5,
            120.71,
            131.55,
            147.83,
            159.36,
            178.69,
            202.42,
            220.73,
            228.52,
            239.04,
            244.8,
            251.58,
            253.96,
            253.62,
            248.53,
            239.72,
            227.85,
            219.03,
            209.2,
            175.63,
            159.02,
            140.37,
            124.09,
            109.86,
            96.971,
            82.39,
            71.542,
            64.42,
            50.858,
            39.331,
            29.837
        ]
    }
}