{
    "Name": "Mo and Wang 2000,C3-2",
    "Type": "Rectangular",
    "fpc": 27.5,
    "fyt": 459.5,
    "fsut": 576.5,
    "fyl": 497.0,
    "fsul": 592.0,
    "Width": 400.0,
    "Depth": 400.0,
    "L_Inflection": 1400.0,
    "L_Measured": 1400.0,
    "TestConfiguration": "Cantilever",
    "AxLoad": 675.0,
    "P_Delta": "P Ram rotation decreases V",
    "dlb": 19.0,
    "dlb_c": 19.0,
    "nlb": 12.0,
    "cc_per": 34.0,
    "nib_per": 2.0,
    "cc_par": 34.0,
    "nib_par": 2.0,
    "SubType": "RI: Rectangular and interlocking ties",
    "nsl": 4.0,
    "dtb_rcs": 6.3,
    "s_rcs": 54.0,
    "FailureType": "Flexure",
    "data": {
        "disp": [
            -0.0776,
            0.8168,
            1.8944,
            2.5968,
            4.0416,
            4.752,
            3.8496,
            2.956,
            1.6944,
            0.8008,
            0.0824,
            -1.3704,
            -2.632,
            -3.3184,
            -2.5632,
            -3.2576,
            -2.8984,
            -2.0048,
            -0.3768,
            0.3416,
            1.6032,
            2.6808,
            3.7584,
            4.4608,
            5.8896,
            5.0952,
            4.3768,
            2.7408,
            1.6552,
            0.7528,
            -0.3248,
            -1.0432,
            -2.1208,
            -3.1904,
            -3.3704,
            -3.8496,
            -3.3064,
            -1.8704,
            -0.7848,
            -0.2496,
            -0.2496,
            0.82,
            2.616,
            5.1304,
            5.1096,
            6.2176,
            8.78,
            8.2688,
            5.7232,
            3.552,
            1.3808,
            -0.7744,
            -2.0976,
            -2.3728,
            -3.2472,
            -5.2264,
            -7.3176,
            -6.8064,
            -3.7176,
            -1.7616,
            0.5688,
            2.3248,
            4.7432,
            4.6984,
            6.2064,
            7.232,
            9.0512,
            7.7984,
            5.8032,
            3.632,
            1.2768,
            -0.7104,
            -1.6344,
            -1.8216,
            -2.896,
            -4.8832,
            -7.3176,
            -5.8808,
            -3.7176,
            -1.9376,
            0.5688,
            0.5688,
            2.676,
            2.9016,
            3.9352,
            7.3672,
            10.8792,
            14.232,
            12.244,
            8.9792,
            5.7232,
            2.2824,
            1.7296,
            0.768,
            -2.368,
            -5.8,
            -8.6016,
            -12.1456,
            -10.2064,
            -7.5728,
            -3.8288,
            -1.2512,
            1.716,
            3.2768,
            4.9496,
            7.1512,
            10.8392,
            14.184,
            12.388,
            9.1152,
            5.8504,
            2.2344,
            1.1128,
            0.824,
            -2.7992,
            -5.2896,
            -8.6096,
            -12.1456,
            -10.1984,
            -7.0056,
            -3.8208,
            -0.6528,
            -0.816,
            3.515,
            6.076,
            8.581,
            13.759,
            18.767,
            23.905,
            20.992,
            15.534,
            10.086,
            4.429,
            -0.559,
            -2.126,
            -5.804,
            -11.601,
            -15.85,
            -21.198,
            -18.135,
            -13.227,
            -7.909,
            -2.182,
            3.076,
            6.154,
            9.091,
            12.98,
            18.388,
            24.394,
            21.012,
            15.095,
            10.096,
            4.659,
            -0.489,
            -2.386,
            -5.635,
            -10.763,
            -16.399,
            -21.228,
            -18.145,
            -13.466,
            -7.909,
            -1.942,
            -1.942,
            4.283,
            4.821,
            10.286,
            17.26,
            23.805,
            30.97,
            26.909,
            19.855,
            12.591,
            6.206,
            3.991,
            -1.184,
            -7.659,
            -14.842,
            -21.008,
            -28.023,
            -24.302,
            -17.607,
            -11.002,
            -4.397,
            3.145,
            4.661,
            10.635,
            17.43,
            23.386,
            30.76,
            26.47,
            19.865,
            13.05,
            5.797,
            3.941,
            -1.254,
            -8.188,
            -14.254,
            -20.819,
            -28.263,
            -24.531,
            -16.918,
            -10.294,
            -3.469,
            -3.469,
            4.074,
            6.839,
            12.551,
            21.172,
            29.034,
            37.345,
            32.377,
            24.175,
            16.003,
            7.832,
            5.051,
            -2.242,
            -10.094,
            -18.195,
            -26.476,
            -34.409,
            -29.799,
            -22.207,
            -13.357,
            -6.243,
            2.487,
            5.6,
            13.13,
            20.763,
            29.323,
            37.615,
            32.187,
            23.975,
            16.033,
            8.131,
            4.83,
            -2.551,
            -10.403,
            -18.794,
            -26.526,
            -34.648,
            -30.498,
            -21.289,
            -13.337,
            -5.545,
            -5.545,
            3.694,
            6.076,
            15.165,
            25.222,
            34.252,
            43.292,
            38.094,
            28.296,
            19.177,
            13.26,
            5.85,
            -3.209,
            -12.678,
            -22.216,
            -31.295,
            -40.705,
            -35.168,
            -26.488,
            -17.239,
            -7.192,
            -1.003,
            6.156,
            15.704,
            25.043,
            33.803,
            43.522,
            38.323,
            28.535,
            18.977,
            13.338,
            5.321,
            -3.968,
            -12.568,
            -22.126,
            -31.784,
            -40.955,
            -35.427,
            -25.799,
            -16.55,
            -7.162,
            -7.162,
            3.594,
            9.843,
            18.987,
            28.984,
            40.239,
            50.337,
            43.322,
            32.387,
            21.022,
            11.566,
            5.15,
            -5.525,
            -15.901,
            -26.577,
            -37.103,
            -47.649,
            -40.346,
            -29.561,
            -18.645,
            -8.099,
            2.886,
            9.752,
            18.847,
            29.783,
            39.86,
            52.252,
            43.632,
            32.447,
            21.072,
            12.267,
            5.49,
            -5.585,
            -15.941,
            -26.697,
            -37.632,
            -48.148,
            -41.065,
            -29.82,
            -19.803,
            -8.099,
            -8.099,
            3.534,
            7.582,
            20.583,
            32.037,
            45.088,
            57.132,
            49.419,
            37.126,
            27.003,
            18.971,
            6.469,
            -5.823,
            -18.165,
            -29.849,
            -41.892,
            -54.325,
            -47.012,
            -34.939,
            -22.787,
            -10.445,
            -2.722,
            8.21,
            20.763,
            32.925,
            44.829,
            57.341,
            49.858,
            37.805,
            26.604,
            18.981,
            6.469,
            -5.833,
            -17.726,
            -30.108,
            -42.182,
            -54.605,
            -47.74,
            -34.959,
            -23.475,
            -10.455,
            -10.455,
            3.524,
            9.398,
            23.317,
            36.836,
            50.347,
            63.538,
            55.595,
            41.716,
            30.226,
            20.228,
            6.159,
            -6.831,
            -20.081,
            -34.06,
            -47.2,
            -60.97,
            -53.667,
            -39.31,
            -25.78,
            -12.101,
            -3.641,
            9.138,
            23.077,
            36.767,
            50.337,
            64.665,
            55.126,
            41.467,
            29.657,
            19.988,
            6.149,
            -7.081,
            -20.79,
            -33.85,
            -47.28,
            -61.26,
            -52.799,
            -39.32,
            -26.459,
            -12.061,
            -12.061,
            -2.195,
            10.535,
            24.963,
            39.84,
            55.505,
            70.752,
            61.223,
            46.457,
            37.08,
            22.334,
            7.078,
            -7.789,
            -22.675,
            -37.622,
            -52.639,
            -68.095,
            -58.767,
            -43.89,
            -29.732,
            -18.668,
            -4.621,
            9.787,
            25.781,
            40.468,
            54.976,
            70.702,
            61.393,
            47.557,
            37.17,
            21.705,
            7.098,
            -8.238,
            -22.675,
            -37.712,
            -53.088,
            -68.075,
            -59.006,
            -44.579,
            -29.084,
            -13.738,
            -13.738,
            3.454,
            11.803,
            27.558,
            44.67,
            60.265,
            77.477,
            66.83,
            50.417,
            34.523,
            23.421,
            7.047,
            -8.957,
            -25.659,
            -41.783,
            -57.877,
            -74.161,
            -65.331,
            -48.419,
            -32.186,
            -15.514,
            -3.951,
            12.493,
            28.176,
            43.951,
            60.464,
            76.768,
            66.8,
            50.158,
            34.194,
            23.341,
            6.528,
            -9.007,
            -25.48,
            -41.753,
            -58.386,
            -74.58,
            -64.144,
            -47.711,
            -31.956,
            -16.002,
            -16.002,
            2.955,
            12.74,
            30.112,
            47.952,
            66.052,
            84.302,
            72.927,
            54.917,
            42.717,
            25.427,
            7.427,
            -10.164,
            -27.794,
            -45.574,
            -63.305,
            -81.515,
            -71.279,
            -52.601,
            -35.04,
            -22.54,
            -4.261,
            12.84,
            30.232,
            47.643,
            66.221,
            84.232,
            72.867,
            55.107,
            42.047,
            25.616,
            7.397,
            -10.423,
            -27.824,
            -45.963,
            -63.105,
            -81.765,
            -70.381,
            -52.601,
            -35.06,
            -23.268,
            -23.268,
            -2.205,
            13.958,
            33.185,
            52.392,
            71.49,
            90.867,
            78.595,
            59.647,
            46.14,
            26.774,
            7.806,
            -11.351,
            -30.358,
            -49.625,
            -68.384,
            -87.722,
            -76.816,
            -57.889,
            -38.024,
            -23.867,
            -5.358,
            14.008,
            33.225,
            51.803,
            71.51,
            90.668,
            78.854,
            59.697,
            45.961,
            27.023,
            7.427,
            -11.102,
            -30.338,
            -49.506,
            -68.464,
            -88.251,
            -76.168,
            -57.65,
            -38.004,
            -24.216,
            -24.216,
            -2.205,
            15.105,
            35.939,
            56.304,
            76.07,
            97.283,
            84.332,
            64.237,
            49.303,
            28.35,
            7.976,
            -12.778,
            -32.933,
            -53.587,
            -73.712,
            -94.616,
            -81.895,
            -61.341,
            -41.047,
            -25.883,
            -5.977,
            15.115,
            35.73,
            56.334,
            77.008,
            96.844,
            84.581,
            64.227,
            49.134,
            28.599,
            8.036,
            -12.289,
            -33.152,
            -53.467,
            -74.051,
            -94.936,
            -81.696,
            -61.511,
            -41.077,
            -26.761,
            -26.761,
            -3.144,
            15.844,
            38.045,
            60.634,
            81.947,
            104.208,
            90.349,
            68.437,
            49.907,
            30.076,
            8.345,
            -13.806,
            -35.807,
            -57.499,
            -79.559,
            -102.06,
            -87.533,
            -66.789,
            -43.961,
            -27.699,
            -6.167,
            16.503,
            38.484,
            59.497,
            81.498,
            104.487,
            90.389,
            68.467,
            50.407,
            29.866,
            8.185,
            -13.796,
            -35.717,
            -58.118,
            -79.949,
            -101.96,
            -87.613,
            -65.801,
            -44.939,
            -22.029,
            -22.029,
            -3.154,
            17.011,
            41.078,
            64.696,
            87.625,
            112.17,
            96.246,
            72.688,
            49.33,
            31.213,
            8.085,
            -15.204,
            -38.781,
            -62.099,
            -85.886,
            -109.244,
            -93.689,
            -70.012,
            -46.923,
            -24.034,
            0.252,
            17.861,
            42.157,
            65.296,
            88.593,
            112.949,
            96.296,
            72.718,
            49.34,
            26.982,
            7.636,
            -15.513,
            -39.051,
            -62.598,
            -85.996,
            -109.584,
            -94.398,
            -70.451,
            -46.644,
            -23.944,
            3.126
        ],
        "force": [
            0.0,
            19.29,
            41.26,
            62.99,
            83.74,
            96.92,
            76.9,
            52.98,
            30.76,
            10.25,
            -1.46,
            -17.58,
            -36.87,
            -57.62,
            -39.55,
            -56.4,
            -36.13,
            -13.67,
            0.73,
            19.29,
            38.33,
            57.86,
            76.9,
            96.19,
            111.82,
            93.26,
            76.9,
            56.4,
            36.62,
            17.09,
            0.73,
            -10.74,
            -30.52,
            -53.47,
            -46.87,
            -66.89,
            -46.39,
            -21.24,
            -2.44,
            10.74,
            10.74,
            29.3,
            58.11,
            94.24,
            90.82,
            131.84,
            150.15,
            121.34,
            83.01,
            49.07,
            12.45,
            -16.36,
            -54.2,
            -49.32,
            -62.99,
            -98.88,
            -129.88,
            -104.0,
            -57.62,
            -16.6,
            12.21,
            49.07,
            77.39,
            92.04,
            101.81,
            112.55,
            143.31,
            120.61,
            83.74,
            51.51,
            16.11,
            -11.96,
            -47.36,
            -56.15,
            -63.96,
            -90.33,
            -127.2,
            -103.03,
            -58.35,
            -17.82,
            10.74,
            10.74,
            52.49,
            86.91,
            96.92,
            128.17,
            168.21,
            199.95,
            163.09,
            110.35,
            66.89,
            21.48,
            -21.24,
            -54.44,
            -56.4,
            -109.13,
            -156.01,
            -192.38,
            -156.01,
            -100.59,
            -48.34,
            -1.95,
            41.26,
            79.59,
            89.11,
            109.37,
            148.68,
            192.87,
            159.42,
            108.4,
            66.89,
            22.95,
            -18.55,
            -50.54,
            -62.5,
            -98.39,
            -143.55,
            -187.99,
            -154.3,
            -100.59,
            -50.54,
            -4.15,
            -4.316,
            45.708,
            88.1088,
            116.5424,
            149.0424,
            210.236,
            250.3488,
            197.028,
            131.2688,
            75.66,
            23.1088,
            -30.472,
            -49.2544,
            -90.6464,
            -148.7928,
            -207.6984,
            -252.3872,
            -201.8536,
            -135.3352,
            -74.3912,
            -15.236,
            37.5752,
            85.3112,
            113.7448,
            131.0192,
            188.1464,
            239.9384,
            193.2216,
            128.9808,
            75.66,
            24.6272,
            -26.9152,
            -57.1272,
            -85.0616,
            -138.1224,
            -190.9336,
            -244.5144,
            -198.2968,
            -133.8064,
            -75.4104,
            -16.7544,
            -16.11,
            38.33,
            85.69,
            118.16,
            161.62,
            224.37,
            255.37,
            195.31,
            124.27,
            65.92,
            9.28,
            -41.99,
            -59.57,
            -109.13,
            -168.21,
            -229.98,
            -274.17,
            -214.84,
            -142.82,
            -78.86,
            -18.55,
            34.67,
            85.45,
            99.12,
            146.0,
            201.17,
            246.34,
            191.65,
            122.07,
            65.67,
            10.74,
            -38.82,
            -55.42,
            -103.76,
            -158.2,
            -213.13,
            -266.6,
            -212.16,
            -141.6,
            -79.59,
            -20.51,
            -20.51,
            37.35,
            88.38,
            105.96,
            173.34,
            231.45,
            259.52,
            192.38,
            114.01,
            52.25,
            -2.93,
            -44.43,
            -71.04,
            -126.22,
            -187.01,
            -249.51,
            -282.47,
            -213.87,
            -134.03,
            -65.67,
            -4.39,
            46.39,
            74.71,
            112.55,
            159.42,
            209.47,
            249.02,
            184.33,
            108.15,
            48.34,
            -5.62,
            -44.19,
            -69.82,
            -116.94,
            -171.63,
            -226.32,
            -274.41,
            -209.72,
            -131.59,
            -65.19,
            -6.35,
            -6.35,
            43.95,
            78.37,
            120.61,
            179.93,
            231.45,
            257.08,
            182.86,
            99.12,
            33.45,
            -22.95,
            -54.69,
            -82.76,
            -135.25,
            -193.85,
            -252.44,
            -282.23,
            -205.08,
            -119.14,
            -47.36,
            9.28,
            55.42,
            94.48,
            112.79,
            168.7,
            214.84,
            248.78,
            177.0,
            95.21,
            31.25,
            -22.95,
            -52.73,
            -78.86,
            -125.73,
            -177.98,
            -230.22,
            -272.71,
            -199.22,
            -115.23,
            -45.9,
            9.03,
            9.03,
            55.66,
            76.66,
            129.39,
            185.79,
            231.45,
            254.15,
            167.24,
            80.81,
            12.21,
            -39.06,
            -56.4,
            -93.51,
            -142.82,
            -198.24,
            -250.98,
            -277.59,
            -187.74,
            -97.9,
            -25.39,
            28.32,
            69.34,
            81.05,
            126.71,
            177.73,
            218.75,
            248.29,
            163.09,
            78.86,
            11.23,
            -37.6,
            -58.59,
            -91.06,
            -135.5,
            -185.3,
            -233.89,
            -270.02,
            -182.13,
            -94.24,
            -23.68,
            28.32,
            28.32,
            66.41,
            81.79,
            134.28,
            187.99,
            229.74,
            253.42,
            165.28,
            74.22,
            2.93,
            -46.14,
            -69.09,
            -99.85,
            -144.29,
            -196.53,
            -244.63,
            -271.97,
            -181.88,
            -86.18,
            -14.4,
            39.31,
            77.64,
            89.84,
            133.3,
            181.15,
            220.21,
            246.34,
            160.4,
            71.78,
            2.69,
            -44.92,
            -67.38,
            -98.14,
            -139.16,
            -186.77,
            -230.71,
            -262.7,
            -174.8,
            -82.52,
            -12.7,
            39.79,
            39.79,
            75.2,
            99.85,
            141.6,
            191.16,
            228.76,
            250.98,
            156.98,
            64.21,
            -5.86,
            -49.07,
            -74.46,
            -106.45,
            -148.44,
            -197.02,
            -239.5,
            -265.14,
            -169.43,
            -72.02,
            -1.46,
            50.29,
            86.18,
            106.45,
            140.87,
            185.79,
            221.19,
            244.87,
            153.32,
            62.5,
            -5.62,
            -47.36,
            -73.0,
            -104.49,
            -143.55,
            -188.23,
            -227.78,
            -257.08,
            -164.06,
            -69.09,
            -0.49,
            50.05,
            50.05,
            82.76,
            107.18,
            147.46,
            193.36,
            229.0,
            249.51,
            151.12,
            54.93,
            -15.14,
            -53.96,
            -81.05,
            -111.33,
            -151.12,
            -197.02,
            -235.6,
            -260.25,
            -159.91,
            -60.3,
            8.06,
            58.35,
            92.77,
            112.79,
            145.75,
            187.74,
            221.19,
            242.68,
            146.48,
            53.22,
            -15.62,
            -41.26,
            -79.59,
            -109.37,
            -146.73,
            -189.7,
            -226.81,
            -253.42,
            -154.79,
            -57.37,
            9.52,
            58.35,
            58.35,
            88.38,
            112.55,
            151.37,
            193.85,
            226.07,
            245.61,
            141.6,
            44.43,
            -24.17,
            -51.51,
            -86.43,
            -115.97,
            -153.81,
            -197.27,
            -233.15,
            -256.59,
            -150.39,
            -49.32,
            18.55,
            65.19,
            98.88,
            117.68,
            149.41,
            188.72,
            220.46,
            240.72,
            138.43,
            43.7,
            -23.93,
            -53.96,
            -85.21,
            -113.77,
            -150.15,
            -190.43,
            -225.59,
            -250.0,
            -146.24,
            -47.61,
            18.8,
            65.19,
            65.19,
            93.51,
            118.41,
            153.56,
            193.85,
            225.34,
            243.16,
            135.01,
            35.89,
            -31.25,
            -58.84,
            -91.06,
            -119.63,
            -156.01,
            -197.51,
            -230.47,
            -253.42,
            -142.33,
            -40.04,
            27.59,
            71.04,
            73.49,
            122.07,
            152.83,
            189.7,
            218.75,
            237.79,
            131.59,
            34.42,
            -30.76,
            -59.08,
            -89.84,
            -117.92,
            -152.59,
            -191.89,
            -224.85,
            -248.29,
            -138.67,
            -38.33,
            28.08,
            70.56,
            70.56,
            87.4,
            123.78,
            156.25,
            193.36,
            222.41,
            239.26,
            127.69,
            27.1,
            -36.87,
            -62.99,
            -94.97,
            -122.8,
            -157.71,
            -196.78,
            -228.27,
            -249.76,
            -134.77,
            -31.01,
            35.4,
            76.66,
            99.61,
            126.71,
            155.27,
            189.45,
            216.8,
            234.13,
            124.51,
            25.88,
            -37.11,
            -61.28,
            -93.75,
            -121.09,
            -153.32,
            -190.43,
            -222.17,
            -243.65,
            -130.37,
            -29.05,
            36.13,
            76.66,
            76.66,
            94.97,
            128.17,
            158.45,
            193.12,
            219.48,
            235.11,
            119.63,
            18.55,
            -41.5,
            -68.36,
            -98.14,
            -125.24,
            -157.96,
            -193.6,
            -223.14,
            -242.43,
            -122.56,
            -20.26,
            43.7,
            83.74,
            106.69,
            129.88,
            157.23,
            189.21,
            214.84,
            230.47,
            116.7,
            17.09,
            -40.53,
            -66.89,
            -96.44,
            -122.07,
            -152.83,
            -185.55,
            -212.65,
            -230.22,
            -113.04,
            -15.62,
            46.63,
            85.69,
            85.69,
            99.61,
            131.84,
            160.89,
            191.41,
            216.06,
            229.74,
            111.33,
            10.25,
            -45.9,
            -70.07,
            -97.9,
            -123.29,
            -152.83,
            -182.37,
            -205.08,
            -218.75,
            -98.63,
            -4.39,
            54.93,
            92.04,
            111.08,
            131.84,
            156.25,
            182.86,
            204.83,
            216.31,
            90.09,
            2.44,
            -44.92,
            -65.92,
            -90.33,
            -112.3,
            -138.67,
            -162.35,
            -182.37,
            -195.31,
            -81.3,
            2.93,
            55.66,
            83.01,
            83.01,
            75.2,
            111.82,
            130.86,
            152.1,
            165.28,
            171.63,
            72.02,
            -4.39,
            -39.55,
            -54.2,
            -70.31,
            -92.29,
            -117.43,
            -142.58,
            -163.09,
            -177.49,
            -64.7,
            12.7,
            55.66,
            71.78,
            81.05,
            90.33,
            105.96,
            122.56,
            132.08,
            118.65,
            44.92,
            -5.62,
            -31.25,
            -46.39,
            -57.62,
            -75.2,
            -94.97,
            -114.99,
            -132.81,
            -148.19,
            -45.17,
            18.31,
            47.61,
            56.4,
            59.08
        ]
    }
}