{
    "Name": "Mo and Wang 2000,C3-3",
    "Type": "Rectangular",
    "fpc": 26.9,
    "fyt": 459.5,
    "fsut": 576.5,
    "fyl": 497.0,
    "fsul": 592.0,
    "Width": 400.0,
    "Depth": 400.0,
    "L_Inflection": 1400.0,
    "L_Measured": 1400.0,
    "TestConfiguration": "Cantilever",
    "AxLoad": 900.0,
    "P_Delta": "P Ram rotation decreases V",
    "dlb": 19.0,
    "dlb_c": 19.0,
    "nlb": 12.0,
    "cc_per": 34.0,
    "nib_per": 2.0,
    "cc_par": 34.0,
    "nib_par": 2.0,
    "SubType": "RI: Rectangular and interlocking ties",
    "nsl": 4.0,
    "dtb_rcs": 6.3,
    "s_rcs": 54.0,
    "FailureType": "Flexure",
    "data": {
        "disp": [
            -0.0136,
            1.392,
            1.2624,
            2.5232,
            3.4416,
            4.3592,
            3.4416,
            2.34,
            1.0624,
            -0.0232,
            -1.1008,
            -2.1704,
            -2.968,
            -2.9976,
            -3.3464,
            -2.8416,
            -1.052,
            -0.5096,
            1.1032,
            2.1728,
            2.8832,
            4.064,
            3.7976,
            4.044,
            4.2896,
            4.7112,
            3.0424,
            2.308,
            0.6632,
            -0.4064,
            -1.1088,
            -2.3536,
            -3.3672,
            -3.2456,
            -3.2672,
            -2.2576,
            -0.7784,
            0.8576,
            1.9272,
            2.9968,
            2.9968,
            1.94,
            2.8472,
            3.4664,
            5.4208,
            7.2408,
            9.7952,
            7.9512,
            5.78,
            3.8168,
            1.6936,
            -0.5016,
            -1.2328,
            -1.2208,
            -1.8072,
            -4.3376,
            -5.8296,
            -4.3208,
            -2.5968,
            -0.4976,
            1.912,
            3.1632,
            3.2792,
            3.9944,
            5.7008,
            7.76,
            9.268,
            8.1344,
            5.788,
            3.8168,
            1.7016,
            -0.2856,
            -1.0976,
            -1.1008,
            -1.8632,
            -4.1216,
            -5.9656,
            -4.3208,
            -2.5888,
            -0.1384,
            1.936,
            1.936,
            2.8592,
            4.3,
            6.172,
            8.6456,
            11.9904,
            15.0952,
            12.3496,
            9.0928,
            5.868,
            2.6832,
            -0.4448,
            -1.2216,
            -1.8472,
            -4.9432,
            -8.3592,
            -10.6416,
            -8.4952,
            -4.9512,
            -2.1496,
            1.2744,
            3.7952,
            3.4136,
            5.8456,
            8.6704,
            11.9904,
            14.728,
            12.1656,
            9.276,
            6.052,
            2.3,
            -0.1096,
            -1.7736,
            -1.8472,
            -5.1352,
            -7.8808,
            -10.4504,
            -8.112,
            -4.9272,
            -1.5744,
            1.2584,
            1.2584,
            3.4344,
            3.8352,
            7.768,
            10.9928,
            15.8216,
            19.6768,
            17.6736,
            12.956,
            9.0208,
            4.448,
            0.7768,
            0.4984,
            -2.852,
            -7.3456,
            -11.5512,
            -15.9976,
            -12.6208,
            -9.644,
            -4.304,
            -0.2496,
            2.748,
            3.252,
            6.6512,
            11.7032,
            15.5824,
            20.228,
            17.3144,
            13.3392,
            9.0288,
            4.44,
            0.9448,
            0.6896,
            -3.4344,
            -7.4096,
            -11.7432,
            -15.8376,
            -13.5632,
            -8.7504,
            -4.312,
            -0.4256,
            1.573,
            4.293,
            4.794,
            9.71,
            13.741,
            19.777,
            24.596,
            22.092,
            16.195,
            11.276,
            5.56,
            0.971,
            0.623,
            -3.565,
            -9.182,
            -14.439,
            -19.997,
            -15.776,
            -12.055,
            -5.38,
            -0.312,
            3.435,
            4.065,
            8.314,
            14.629,
            19.478,
            25.285,
            21.643,
            16.674,
            11.286,
            5.55,
            1.181,
            0.862,
            -4.293,
            -9.262,
            -14.679,
            -19.797,
            -16.954,
            -10.938,
            -5.39,
            -0.532,
            -0.532,
            2.904,
            4.592,
            11.596,
            18.181,
            24.357,
            31.491,
            27.66,
            20.706,
            14.59,
            8.126,
            6.702,
            0.497,
            -6.298,
            -12.673,
            -19.318,
            -26.303,
            -21.903,
            -14.998,
            -8.504,
            -2.348,
            -0.163,
            5.191,
            11.716,
            18.63,
            25.325,
            31.711,
            27.66,
            20.706,
            14.38,
            8.325,
            7.141,
            0.257,
            -5.17,
            -12.244,
            -19.088,
            -25.604,
            -22.122,
            -15.218,
            -9.182,
            -2.079,
            -2.079,
            5.095,
            5.79,
            13.691,
            21.404,
            30.074,
            37.917,
            33.437,
            25.595,
            17.793,
            12.491,
            7.121,
            -0.231,
            -7.964,
            -16.394,
            -24.207,
            -32.139,
            -28.228,
            -19.279,
            -11.667,
            -3.715,
            -0.963,
            6.528,
            14.43,
            22.482,
            30.354,
            38.416,
            33.707,
            25.156,
            17.793,
            12.641,
            7.381,
            0.018,
            -8.393,
            -16.235,
            -24.237,
            -32.409,
            -27.111,
            -19.528,
            -11.677,
            -3.466,
            -3.466,
            3.984,
            7.906,
            17.603,
            26.652,
            35.423,
            45.261,
            38.675,
            29.187,
            19.589,
            10.789,
            6.652,
            -1.808,
            -11.337,
            -20.436,
            -30.024,
            -39.283,
            -33.077,
            -23.669,
            -14.09,
            -4.962,
            3.237,
            8.365,
            17.593,
            26.772,
            35.752,
            45.47,
            38.885,
            28.957,
            19.808,
            10.6,
            7.161,
            -2.237,
            -11.307,
            -20.625,
            -29.854,
            -38.834,
            -33.087,
            -22.99,
            -14.539,
            -4.742,
            -4.742,
            4.945,
            8.395,
            19.679,
            30.454,
            40.93,
            51.687,
            45.091,
            34.256,
            22.902,
            14.805,
            7.53,
            -2.606,
            -13.282,
            -23.399,
            -34.364,
            -44.521,
            -38.775,
            -27.56,
            -17.134,
            -6.419,
            2.428,
            8.894,
            19.689,
            30.474,
            41.06,
            52.016,
            45.191,
            34.565,
            23.61,
            16.084,
            7.999,
            -2.467,
            -13.611,
            -23.868,
            -34.354,
            -45.26,
            -38.595,
            -27.829,
            -17.124,
            -6.399,
            -6.399,
            5.384,
            9.102,
            21.953,
            33.687,
            46.269,
            58.482,
            51.079,
            38.766,
            30.394,
            20.731,
            8.659,
            -3.414,
            -15.836,
            -27.489,
            -39.543,
            -51.417,
            -44.812,
            -32.49,
            -20.617,
            -10.135,
            -1.733,
            9.92,
            22.073,
            34.266,
            46.019,
            58.691,
            51.079,
            38.577,
            30.624,
            20.542,
            8.579,
            -3.733,
            -15.367,
            -27.829,
            -39.523,
            -52.085,
            -44.792,
            -32.51,
            -20.627,
            -10.185,
            -10.185,
            0.846,
            11.138,
            23.979,
            38.217,
            50.879,
            65.097,
            56.716,
            43.166,
            29.817,
            22.377,
            8.738,
            -5.22,
            -18.42,
            -31.551,
            -44.392,
            -57.652,
            -50.16,
            -37.369,
            -24.079,
            -10.79,
            -0.413,
            11.417,
            24.937,
            38.486,
            51.837,
            65.347,
            56.965,
            42.967,
            29.827,
            22.208,
            8.768,
            -4.701,
            -18.051,
            -31.541,
            -45.18,
            -57.842,
            -50.339,
            -36.65,
            -23.421,
            -10.121,
            -10.121,
            1.235,
            12.515,
            27.421,
            41.43,
            56.157,
            71.283,
            62.443,
            47.547,
            34.24,
            23.864,
            8.818,
            -5.939,
            -20.985,
            -35.602,
            -49.491,
            -63.998,
            -56.037,
            -40.991,
            -26.424,
            -11.768,
            -1.89,
            11.587,
            27.411,
            42.338,
            56.516,
            72.181,
            62.433,
            47.547,
            34.6,
            23.655,
            9.068,
            -6.038,
            -20.536,
            -35.402,
            -50.209,
            -64.587,
            -56.167,
            -42.029,
            -26.434,
            -11.788,
            -11.788,
            -1.334,
            13.153,
            29.706,
            45.141,
            62.333,
            78.747,
            68.46,
            53.847,
            42.184,
            25.99,
            9.298,
            -6.427,
            -22.79,
            -39.094,
            -54.869,
            -70.784,
            -63.571,
            -46.2,
            -29.937,
            -18.004,
            -3.53,
            13.233,
            29.556,
            45.211,
            62.393,
            78.807,
            68.73,
            54.577,
            42.493,
            26.12,
            9.747,
            -6.407,
            -22.79,
            -38.964,
            -54.819,
            -71.193,
            -62.214,
            -46.2,
            -29.877,
            -18.704,
            -18.704,
            -0.125,
            13.872,
            31.542,
            49.243,
            66.973,
            84.624,
            74.207,
            56.667,
            43.566,
            27.377,
            9.587,
            -7.894,
            -25.704,
            -43.095,
            -59.748,
            -77.139,
            -67.611,
            -50.111,
            -32.561,
            -16.249,
            -3.559,
            13.872,
            32.47,
            50.171,
            67.791,
            85.542,
            73.988,
            56.218,
            44.036,
            27.247,
            9.756,
            -7.804,
            -25.734,
            -42.905,
            -60.247,
            -77.858,
            -67.641,
            -50.809,
            -32.81,
            -15.749,
            -15.749,
            -0.695,
            15.548,
            34.166,
            53.712,
            72.281,
            92.317,
            80.195,
            64.007,
            48.32,
            29.243,
            9.807,
            -8.812,
            -28.028,
            -46.517,
            -65.016,
            -84.304,
            -73.698,
            -55.61,
            -36.164,
            -22.187,
            -4.108,
            16.077,
            34.935,
            54.022,
            72.581,
            92.387,
            80.484,
            63.547,
            48.45,
            29.064,
            9.966,
            -9.011,
            -28.138,
            -46.437,
            -65.196,
            -84.484,
            -73.199,
            -54.752,
            -36.124,
            -22.017,
            -22.017,
            -0.865,
            16.945,
            36.471,
            56.706,
            77.58,
            99.022,
            86.072,
            71.298,
            51.743,
            31.159,
            10.575,
            -9.68,
            -30.283,
            -50.618,
            -70.524,
            -90.999,
            -79.266,
            -59.401,
            -40.387,
            -24.253,
            -3.659,
            16.286,
            36.511,
            57.205,
            78.298,
            99.052,
            86.072,
            70.658,
            51.284,
            31.189,
            10.475,
            -9.42,
            -29.934,
            -50.119,
            -70.714,
            -90.74,
            -79.496,
            -59.91,
            -39.068,
            -24.143,
            -24.143,
            -0.985,
            17.094,
            38.915,
            61.376,
            83.606,
            105.987,
            91.889,
            76.357,
            54.647,
            32.805,
            10.835,
            -10.807,
            -32.329,
            -54.051,
            -75.343,
            -97.226,
            -85.333,
            -64.989,
            -46.459,
            -26.588,
            -4.607,
            17.184,
            39.225,
            60.987,
            83.077,
            106.167,
            92.129,
            76.427,
            54.856,
            32.566,
            11.034,
            -10.827,
            -32.568,
            -54.52,
            -75.583,
            -97.695,
            -86.022,
            -63.842,
            -44.551,
            -25.54,
            -25.54,
            -1.923,
            19.33,
            42.358,
            65.647,
            88.865,
            112.492,
            97.286,
            74.348,
            57.55,
            34.282,
            11.064,
            -11.855,
            -35.333,
            -57.782,
            -80.881,
            -103.561,
            -90.64,
            -68.481,
            -44.944,
            -25.136,
            -4.098,
            19.25,
            42.428,
            65.617,
            88.536,
            111.934,
            97.616,
            74.867,
            57.34,
            34.312,
            11.054,
            -12.205,
            -35.053,
            -58.361,
            -81.69,
            -104.359,
            -90.74,
            -68.72,
            -44.944,
            -26.565,
            -26.565,
            -1.045,
            20.467,
            45.202,
            69.089,
            94.074,
            119.078,
            104.132,
            79.518,
            60.643,
            35.958,
            11.303,
            -13.352,
            -37.847,
            -62.542,
            -87.537,
            -113.31,
            -97.885,
            -73.3,
            -48.636,
            -26.891,
            -3.458,
            20.647,
            45.592,
            69.967,
            94.972,
            120.915,
            103.863,
            79.348,
            60.603,
            35.678,
            10.574,
            -13.841,
            -38.586,
            -63.98,
            -88.485,
            -114.039,
            -97.147,
            -72.552,
            -48.456,
            -22.643,
            4.876
        ],
        "force": [
            50.29,
            48.58,
            61.52,
            73.0,
            85.69,
            94.48,
            67.14,
            39.31,
            13.43,
            -1.71,
            -20.02,
            -16.85,
            -21.73,
            -27.83,
            -34.67,
            -47.36,
            -24.41,
            -1.71,
            14.4,
            40.04,
            44.43,
            55.66,
            50.54,
            62.26,
            80.57,
            93.99,
            67.38,
            39.79,
            13.67,
            -1.71,
            -18.31,
            -19.04,
            -24.41,
            -29.79,
            -35.16,
            -28.81,
            -6.84,
            7.81,
            32.96,
            41.5,
            41.5,
            43.95,
            47.36,
            64.94,
            113.53,
            145.75,
            172.36,
            139.89,
            97.66,
            53.96,
            10.5,
            -18.8,
            -28.32,
            -30.03,
            -55.91,
            -93.99,
            -124.51,
            -94.73,
            -51.51,
            -8.54,
            23.44,
            37.84,
            55.42,
            61.28,
            100.1,
            133.79,
            168.21,
            137.45,
            97.17,
            55.18,
            12.21,
            -16.36,
            -26.37,
            -34.67,
            -51.03,
            -89.36,
            -123.54,
            -94.24,
            -52.0,
            -9.52,
            22.46,
            22.46,
            46.63,
            58.35,
            100.1,
            152.34,
            200.93,
            231.93,
            181.15,
            125.98,
            73.49,
            17.58,
            -24.9,
            -29.79,
            -59.81,
            -111.08,
            -154.05,
            -182.13,
            -138.43,
            -89.36,
            -35.89,
            9.77,
            45.41,
            50.05,
            96.19,
            140.62,
            188.23,
            228.76,
            179.69,
            126.46,
            76.42,
            21.48,
            -19.04,
            -24.41,
            -52.73,
            -100.34,
            -142.58,
            -178.47,
            -136.23,
            -88.87,
            -36.62,
            7.81,
            7.81,
            42.44,
            53.71,
            112.55,
            172.36,
            235.6,
            278.81,
            229.0,
            161.87,
            100.83,
            37.84,
            -18.07,
            -31.74,
            -78.61,
            -134.28,
            -186.77,
            -223.88,
            -183.11,
            -127.2,
            -72.27,
            -10.99,
            38.57,
            58.84,
            106.2,
            158.94,
            214.84,
            268.8,
            223.88,
            158.94,
            100.34,
            39.06,
            -15.14,
            -27.83,
            -73.73,
            -124.27,
            -171.87,
            -217.53,
            -179.93,
            -125.98,
            -73.24,
            -12.45,
            8.2786,
            44.9864,
            56.9326,
            119.303,
            182.7016,
            249.736,
            295.5386,
            242.74,
            171.5822,
            106.8798,
            40.1104,
            -19.1542,
            -33.6444,
            -83.3266,
            -142.3368,
            -197.9762,
            -237.3128,
            -194.0966,
            -134.832,
            -76.6062,
            -11.6494,
            40.8842,
            62.3704,
            112.572,
            168.4764,
            227.7304,
            284.928,
            237.3128,
            168.4764,
            106.3604,
            41.4036,
            -16.0484,
            -29.4998,
            -78.1538,
            -131.7262,
            -182.1822,
            -230.5818,
            -190.7258,
            -133.5388,
            -77.6344,
            -13.197,
            -12.45,
            42.48,
            60.06,
            128.17,
            193.85,
            261.47,
            299.07,
            238.04,
            163.33,
            97.17,
            30.76,
            -19.53,
            -41.5,
            -105.96,
            -160.16,
            -213.87,
            -258.79,
            -211.67,
            -149.9,
            -91.8,
            -27.1,
            38.57,
            53.96,
            115.48,
            174.07,
            232.42,
            285.89,
            232.18,
            160.16,
            95.46,
            31.49,
            -24.9,
            -38.57,
            -101.56,
            -151.86,
            -201.66,
            -253.42,
            -208.98,
            -148.93,
            -92.04,
            -29.79,
            -29.79,
            42.72,
            57.37,
            132.81,
            201.42,
            267.82,
            299.56,
            232.18,
            152.83,
            83.25,
            14.4,
            -24.66,
            -65.19,
            -123.78,
            -179.93,
            -239.5,
            -288.09,
            -233.89,
            -164.55,
            -103.27,
            -37.6,
            32.47,
            54.44,
            122.31,
            181.88,
            239.75,
            285.4,
            223.63,
            146.73,
            79.59,
            13.18,
            -23.68,
            -64.21,
            -120.12,
            -171.87,
            -227.54,
            -281.25,
            -230.22,
            -163.82,
            -103.27,
            -39.31,
            -39.31,
            36.62,
            68.85,
            138.92,
            204.35,
            265.62,
            287.84,
            210.94,
            128.91,
            56.4,
            -8.06,
            -33.45,
            -88.62,
            -143.8,
            -200.93,
            -260.99,
            -300.54,
            -234.13,
            -161.13,
            -95.46,
            -28.32,
            36.87,
            68.85,
            129.15,
            186.04,
            237.79,
            276.86,
            202.64,
            123.29,
            52.98,
            -9.52,
            -34.42,
            -86.91,
            -138.43,
            -193.12,
            -246.83,
            -293.95,
            -230.47,
            -158.2,
            -94.24,
            -29.3,
            -29.3,
            36.38,
            64.7,
            136.72,
            199.22,
            252.69,
            279.54,
            201.9,
            115.23,
            38.33,
            -24.9,
            -54.93,
            -100.59,
            -154.79,
            -211.91,
            -267.58,
            -301.27,
            -234.13,
            -153.56,
            -84.96,
            -16.11,
            40.04,
            70.07,
            130.13,
            185.06,
            231.45,
            266.36,
            192.14,
            108.15,
            32.71,
            -14.65,
            -57.37,
            -100.1,
            -148.93,
            -202.64,
            -251.46,
            -295.17,
            -229.98,
            -151.86,
            -83.74,
            -16.85,
            -16.85,
            41.02,
            72.75,
            139.65,
            196.53,
            243.41,
            268.07,
            186.52,
            95.7,
            16.36,
            -24.9,
            -73.49,
            -112.55,
            -163.33,
            -219.73,
            -269.53,
            -301.76,
            -229.0,
            -143.07,
            -70.8,
            -2.69,
            40.77,
            76.66,
            134.77,
            186.28,
            228.03,
            257.81,
            178.71,
            89.84,
            12.7,
            -31.01,
            -75.2,
            -112.06,
            -159.67,
            -211.43,
            -257.57,
            -296.14,
            -225.34,
            -140.38,
            -69.09,
            -2.93,
            -2.93,
            41.02,
            80.81,
            142.09,
            194.58,
            236.08,
            260.25,
            173.1,
            78.37,
            -0.73,
            -39.06,
            -87.4,
            -123.05,
            -172.85,
            -226.56,
            -272.46,
            -302.73,
            -223.88,
            -132.81,
            -56.64,
            7.81,
            46.39,
            84.23,
            138.18,
            186.04,
            224.12,
            250.73,
            166.02,
            73.49,
            -1.71,
            -39.06,
            -87.4,
            -122.31,
            -169.43,
            -218.99,
            -262.7,
            -295.9,
            -219.24,
            -129.15,
            -54.93,
            8.3,
            8.3,
            41.75,
            87.89,
            145.02,
            193.12,
            230.22,
            252.44,
            161.13,
            62.74,
            -14.16,
            -53.96,
            -97.41,
            -131.59,
            -180.91,
            -230.96,
            -273.93,
            -301.76,
            -218.02,
            -123.54,
            -44.92,
            18.31,
            45.9,
            90.58,
            141.6,
            185.79,
            221.68,
            245.12,
            156.01,
            59.57,
            -15.14,
            -54.2,
            -96.92,
            -130.62,
            -177.73,
            -225.34,
            -266.85,
            -296.63,
            -213.87,
            -120.12,
            -42.24,
            18.8,
            18.8,
            41.75,
            95.7,
            150.15,
            195.31,
            228.52,
            248.05,
            149.66,
            45.65,
            -31.01,
            -69.09,
            -107.91,
            -140.87,
            -190.92,
            -238.28,
            -277.34,
            -301.76,
            -212.89,
            -110.35,
            -28.08,
            30.27,
            60.79,
            96.92,
            146.24,
            187.5,
            219.73,
            240.97,
            145.02,
            43.21,
            -31.49,
            -68.6,
            -106.69,
            -139.4,
            -186.28,
            -231.69,
            -269.04,
            -295.65,
            -208.01,
            -107.67,
            -27.1,
            30.03,
            30.03,
            54.44,
            101.07,
            151.12,
            192.63,
            223.63,
            242.43,
            140.14,
            33.94,
            -25.63,
            -77.64,
            -114.01,
            -147.95,
            -194.58,
            -238.28,
            -275.39,
            -298.58,
            -203.86,
            -98.39,
            -16.85,
            37.6,
            63.96,
            102.54,
            147.95,
            186.52,
            216.55,
            235.6,
            135.99,
            31.74,
            -31.98,
            -77.15,
            -113.04,
            -144.78,
            -191.41,
            -233.4,
            -268.8,
            -292.97,
            -199.46,
            -95.21,
            -14.89,
            37.84,
            37.84,
            60.55,
            105.96,
            152.59,
            190.67,
            219.24,
            237.06,
            131.35,
            23.44,
            -30.03,
            -84.72,
            -118.9,
            -152.59,
            -197.75,
            -239.5,
            -273.19,
            -295.17,
            -196.29,
            -87.65,
            -5.86,
            44.92,
            73.0,
            107.42,
            149.17,
            186.04,
            214.11,
            232.18,
            127.69,
            21.24,
            -40.04,
            -84.23,
            -118.16,
            -150.39,
            -194.09,
            -234.62,
            -267.09,
            -289.55,
            -192.14,
            -85.45,
            -6.1,
            44.19,
            44.19,
            64.94,
            110.11,
            153.56,
            189.94,
            217.04,
            233.15,
            122.07,
            12.94,
            -42.72,
            -89.84,
            -123.78,
            -156.25,
            -199.95,
            -238.77,
            -270.75,
            -291.02,
            -188.72,
            -77.64,
            0.49,
            48.1,
            77.88,
            111.33,
            151.37,
            185.3,
            210.94,
            227.54,
            117.68,
            11.47,
            -44.68,
            -90.58,
            -122.8,
            -154.79,
            -197.02,
            -234.62,
            -265.38,
            -286.62,
            -184.08,
            -74.46,
            1.22,
            36.62,
            36.62,
            69.82,
            114.01,
            154.54,
            188.48,
            213.38,
            227.54,
            112.55,
            3.91,
            -50.78,
            -96.68,
            -128.42,
            -159.67,
            -201.17,
            -238.04,
            -268.31,
            -287.11,
            -179.44,
            -66.89,
            8.79,
            48.1,
            83.01,
            113.77,
            150.88,
            183.35,
            207.03,
            220.95,
            107.67,
            1.95,
            -51.76,
            -96.68,
            -127.93,
            -158.2,
            -198.0,
            -232.91,
            -262.45,
            -281.98,
            -175.05,
            -64.21,
            9.03,
            50.54,
            50.54,
            73.24,
            114.75,
            152.34,
            184.08,
            206.54,
            218.02,
            99.85,
            -5.37,
            -60.06,
            -103.03,
            -132.57,
            -162.11,
            -200.93,
            -235.6,
            -263.18,
            -279.79,
            -168.7,
            -56.4,
            15.87,
            53.22,
            83.25,
            112.06,
            145.75,
            175.29,
            196.53,
            208.01,
            91.31,
            -8.79,
            -61.77,
            -101.56,
            -129.64,
            -157.23,
            -192.14,
            -224.61,
            -252.2,
            -269.53,
            -159.18,
            -49.8,
            17.58,
            44.43,
            44.43,
            68.12,
            105.47,
            138.43,
            167.72,
            188.48,
            197.75,
            78.37,
            -20.26,
            -69.09,
            -103.03,
            -126.22,
            -152.1,
            -183.59,
            -211.43,
            -218.51,
            -202.64,
            -110.11,
            -33.94,
            13.67,
            44.92,
            62.99,
            88.62,
            118.41,
            120.85,
            136.47,
            118.65,
            36.13,
            -26.86,
            -55.42,
            -73.97,
            -96.68,
            -118.16,
            -142.09,
            -163.82,
            -178.47,
            -167.48,
            -85.69,
            -29.54,
            0.73,
            13.92,
            23.68
        ]
    },
    "best_fit": {
        "eta1": 0.9385105085287049,
        "kappa_k": 1.0100501417272396,
        "kappa": 1.0229745419345806,
        "sig": 0.826135288888354,
        "lam": 0.3801947014857908,
        "mup": 0.7974573580965902,
        "sigp": 3.9426051724142974,
        "rsmax": 0.13887091552543468,
        "n": 3.655716435242268,
        "alpha": 0.007817084889616861,
        "alpha1": 1.3472335156530986,
        "alpha2": 0.12587749117540858,
        "betam1": 0.0025216310889812805,
        "gamma": 0.24776511508779758
    }
}